FILE:	201207200911.FSHM.EHE.psa
DATE:	2012-07-20 09:11
STA:	FSHM
STLA:	-38.757
STLO:	146.0
SR:	100 Hz
EQLA:	-38.229
EQLO:	146.218
EQDEP:	10.49 km
EQMAG:	4.2
RHYP:	62.6 km
PGA:	26.991 mm/s/s
PGV:	1.272 mm/s

5% Damped Pseudo Response Spectral Acceleration (PSA) claculated
using time histories filtered using a 4th order Butterworth
bandpass between 0.2-50.0 Hz

Record Processed: 2016-01-24 12:31

-----------------------------------------------------------------
Period (s)	PSA (m/s/s)
-----------------------------------------------------------------
2.00923e-02	2.84717e-02
2.15443e-02	2.87825e-02
2.31013e-02	2.96052e-02
2.47708e-02	3.01744e-02
2.65609e-02	2.96604e-02
2.84804e-02	3.08835e-02
3.05386e-02	3.16828e-02
3.27455e-02	3.23739e-02
3.51119e-02	3.74166e-02
3.76494e-02	4.25573e-02
4.03702e-02	5.67180e-02
4.32876e-02	4.35438e-02
4.64159e-02	4.90295e-02
4.97702e-02	5.82874e-02
5.33670e-02	5.91474e-02
5.72237e-02	6.54277e-02
6.13591e-02	6.13935e-02
6.57933e-02	7.31396e-02
7.05480e-02	9.41445e-02
7.56463e-02	8.92451e-02
8.11131e-02	9.69153e-02
8.69749e-02	7.29253e-02
9.32603e-02	7.38953e-02
1.00000e-01	7.49330e-02
1.07227e-01	7.26269e-02
1.14976e-01	7.77995e-02
1.23285e-01	5.73495e-02
1.32194e-01	6.81910e-02
1.41747e-01	7.53022e-02
1.51991e-01	7.57543e-02
1.62975e-01	8.67243e-02
1.74753e-01	7.08031e-02
1.87382e-01	7.33727e-02
2.00923e-01	8.02274e-02
2.15443e-01	8.04033e-02
2.31013e-01	8.43169e-02
2.47708e-01	8.88829e-02
2.65609e-01	8.11811e-02
2.84804e-01	7.38465e-02
3.05386e-01	7.22200e-02
3.27455e-01	7.42347e-02
3.51119e-01	8.35864e-02
3.76494e-01	7.21301e-02
4.03702e-01	6.41666e-02
4.32876e-01	4.93824e-02
4.64159e-01	4.78410e-02
4.97702e-01	3.98577e-02
5.33670e-01	2.60438e-02
5.72237e-01	1.69274e-02
6.13591e-01	1.50274e-02
6.57933e-01	1.56129e-02
7.05480e-01	1.82679e-02
7.56463e-01	2.03196e-02
8.11131e-01	1.40981e-02
8.69749e-01	1.04615e-02
9.32603e-01	7.46261e-03
1.00000e+00	5.93144e-03
1.07227e+00	4.43440e-03
1.14976e+00	3.84324e-03
1.23285e+00	3.24290e-03
1.32194e+00	2.73004e-03
1.41747e+00	2.28799e-03
1.51991e+00	1.93936e-03
1.62975e+00	1.68160e-03
1.74753e+00	1.44831e-03
1.87382e+00	1.23510e-03
2.00923e+00	1.07056e-03
2.15443e+00	9.35982e-04
2.31013e+00	8.10932e-04
2.47708e+00	6.98546e-04
2.65609e+00	6.01392e-04
2.84804e+00	5.21988e-04
3.05386e+00	4.56451e-04
3.27455e+00	3.97572e-04
3.51119e+00	3.45737e-04
3.76494e+00	2.87199e-04
4.03702e+00	2.34995e-04
4.32876e+00	2.23635e-04
4.64159e+00	2.06644e-04
4.97702e+00	1.55262e-04
